File: output/09%/voigt/dataset/fitting.csv
111thetas,111intensity,200thetas,200intensity,220thetas,220intensity,311thetas,311intensity,222thetas,222intensity
18.48,0.298094,21.5,0.402385,31.5,6.75724,37.0,2.02296,50.0,1.41208
18.5,0.308476,21.52,0.415758,31.52,7.07548,37.02,2.09404,50.02,1.47611
18.52,0.319411,21.54,0.429808,31.54,7.4167,37.04,2.16894,50.04,1.54458
18.54,0.330937,21.56,0.444583,31.56,7.78319,37.06,2.24792,50.06,1.61792
18.56,0.343098,21.58,0.460132,31.58,8.1775,37.08,2.33129,50.08,1.6966
18.58,0.355942,21.6,0.476511,31.6,8.60251,37.1,2.41939,50.1,1.78116
18.6,0.36952,21.62,0.49378,31.62,9.06148,37.12,2.51256,50.12,1.87218
18.62,0.38389,21.64,0.512005,31.64,9.55813,37.14,2.61123,50.14,1.97035
18.64,0.399115,21.66,0.531257,31.66,10.0967,37.16,2.71581,50.16,2.07643
18.66,0.415263,21.68,0.551615,31.68,10.682,37.18,2.8268,50.18,2.19129
18.68,0.432411,21.7,0.573164,31.7,11.3197,37.2,2.94472,50.2,2.31593
18.7,0.450643,21.72,0.596002,31.72,12.016,37.22,3.07018,50.22,2.45148
18.72,0.470053,21.74,0.62023,31.74,12.7786,37.24,3.20381,50.24,2.59927
18.74,0.490743,21.76,0.645966,31.76,13.6159,37.26,3.34636,50.26,2.76079
18.76,0.512829,21.78,0.673336,31.78,14.5382,37.28,3.49862,50.28,2.93779
18.78,0.53644,21.8,0.702481,31.8,15.5571,37.3,3.6615,50.3,3.13233
18.8,0.561719,21.82,0.73356,31.82,16.6868,37.32,3.83601,50.32,3.34678
18.82,0.588826,21.84,0.766745,31.84,17.9438,37.34,4.02328,50.34,3.58394
18.84,0.617943,21.86,0.802232,31.86,19.3479,37.36,4.22458,50.36,3.84712
18.86,0.649273,21.88,0.840239,31.88,20.9229,37.38,4.44136,50.38,4.14027
18.88,0.683046,21.9,0.881009,31.9,22.6976,37.4,4.67523,50.4,4.46808
18.9,0.719521,21.92,0.924817,31.92,24.7072,37.42,4.92803,50.42,4.83621
18.92,0.758997,21.94,0.971972,31.94,26.9948,37.44,5.20187,50.44,5.25152
18.94,0.801809,21.96,1.02282,31.96,29.6138,37.46,5.49914,50.46,5.72237
18.96,0.848346,21.98,1.07777,31.98,32.6313,37.48,5.82258,50.48,6.25906
18.98,0.899051,22.0,1.13725,32.0,36.1317,37.5,6.17535,50.5,6.87436
19.0,0.954437,22.02,1.2018,32.02,40.2233,37.52,6.56111,50.52,7.58429
19.02,1.0151,22.04,1.27199,32.04,45.046,37.54,6.98407,50.54,8.40908
19.04,1.08172,22.06,1.34851,32.06,50.7833,37.56,7.44918,50.56,9.37465
19.06,1.15512,22.08,1.43213,32.08,57.6797,37.58,7.96221,50.58,10.5146
19.08,1.23625,22.1,1.52376,32.1,66.0662,37.6,8.52994,50.6,11.8729
19.1,1.32621,22.12,1.62446,32.12,76.3989,37.62,9.16043,50.62,13.5082
19.12,1.42635,22.14,1.73547,32.14,89.32,37.64,9.86322,50.64,15.4999
19.14,1.53826,22.16,1.85822,32.16,105.755,37.66,10.6498,50.66,17.9572
19.16,1.66385,22.18,1.99445,32.18,127.072,37.68,11.5339,50.68,21.0334
19.18,1.80545,22.2,2.14619,32.2,155.353,37.7,12.5323,50.7,24.9483
19.2,1.96588,22.22,2.31587,32.22,193.874,37.72,13.6656,50.72,30.0244
19.22,2.14863,22.24,2.50645,32.24,247.976,37.74,14.9589,50.74,36.7464
19.24,2.35804,22.26,2.72148,32.26,326.698,37.76,16.4437,50.76,45.8612
19.26,2.59953,22.28,2.96531,32.28,445.861,37.78,18.1594,50.78,58.5472
19.28,2.88,22.3,3.24332,32.3,633.552,37.8,20.1563,50.8,76.6897
19.3,3.20827,22.32,3.56217,32.32,936.694,37.82,22.4986,50.82,103.275
19.32,3.59582,22.34,3.93022,32.34,1407.66,37.84,25.27,50.84,142.651
19.34,4.05775,22.36,4.3581,32.36,1972.99,37.86,28.5811,50.86,199.149
19.36,4.61431,22.38,4.85944,32.38,2188.55,37.88,32.5794,50.88,269.062
19.38,5.29304,22.4,5.45194,32.4,1783.69,37.9,37.4663,50.9,323.015
19.4,6.13226,22.42,6.15895,32.42,1222.53,37.92,43.521,50.92,316.553
19.42,7.18643,22.44,7.01172,32.44,813.702,37.94,51.139,50.94,256.003
19.44,8.53498,22.46,8.05285,32.46,557.551,37.96,60.8936,50.96,187.358
19.46,10.2973,22.48,9.34149,32.48,398.121,37.98,73.6377,50.98,134.183
19.48,12.6589,22.5,10.9616,32.5,295.537,38.0,90.676,51.0,97.5454
19.5,15.9203,22.52,13.0354,32.52,226.8,38.02,114.065,51.02,72.8081
19.52,20.591,22.54,15.7457,32.54,178.945,38.04,147.146,51.04,55.8602
19.54,27.5854,22.56,19.3749,32.56,144.486,38.06,195.488,51.06,43.9504
19.56,38.6519,22.58,24.3753,32.58,118.942,38.08,268.443,51.08,35.3507
19.58,57.3814,22.6,31.5003,32.6,99.5272,38.1,380.902,51.1,28.9796
19.6,91.5994,22.62,42.0614,32.62,84.4512,38.12,550.695,51.12,24.1488
19.62,157.692,22.64,58.4377,32.64,72.5244,38.14,771.125,51.14,20.4094
19.64,270.243,22.66,85.0471,32.66,62.9351,38.16,936.24,51.16,17.4618
19.66,334.025,22.68,129.658,32.68,55.1148,38.18,885.134,51.18,15.1005
19.68,236.87,22.7,200.986,32.7,48.6567,38.2,674.846,51.2,13.1819
19.7,135.425,22.72,281.943,32.72,43.2639,38.22,470.756,51.22,11.603
19.72,80.1207,22.74,291.833,32.74,38.7156,38.24,327.113,51.24,10.2889
19.74,51.2488,22.76,216.69,32.76,34.845,38.26,233.633,51.26,9.1842
19.76,35.114,22.78,140.615,32.78,31.5246,38.28,172.599,51.28,8.24691
19.78,25.3941,22.8,91.6018,32.8,28.6553,38.3,131.619,51.3,7.44511
19.8,19.1518,22.82,62.3812,32.82,26.1591,38.32,103.178,51.32,6.75406
19.82,14.929,22.84,44.5383,32.84,23.9744,38.34,82.8042,51.34,6.15438
19.84,11.9491,22.86,33.131,32.86,22.0515,38.36,67.7886,51.36,5.63073
19.86,9.77263,22.88,25.4957,32.88,20.3503,38.38,56.4424,51.38,5.17086
19.88,8.13671,22.9,20.1736,32.9,18.8381,38.4,47.6804,51.4,4.76485
19.9,6.87723,22.92,16.333,32.92,17.488,38.42,40.7844,51.42,4.40465
19.92,5.88756,22.94,13.4789,32.94,16.2777,38.44,35.2662,51.44,4.08364
19.94,5.09616,22.96,11.3041,32.96,15.1885,38.46,30.7856,51.46,3.79636
19.96,4.4536,22.98,9.61128,32.98,14.2049,38.48,27.1003,51.48,3.53826
19.98,3.9249,23.0,8.26895,33.0,13.3137,38.5,24.034,51.5,3.30552
20.0,3.48476,23.02,7.18739,33.02,12.5036,38.52,21.4566,51.52,3.09496
20.02,3.1145,23.04,6.30361,33.04,11.7651,38.54,19.27,51.54,2.90383
20.04,2.80012,23.06,5.57244,33.06,11.0901,38.56,17.3995,51.56,2.72983
20.06,2.53093,23.08,4.96085,33.08,10.4714,38.58,15.7873,51.58,2.57097
20.08,2.29869,23.1,4.44424,33.1,9.90308,38.6,14.3881,51.6,2.42555
20.1,2.09695,23.12,4.00399,33.12,9.37971,38.62,13.1663,51.62,2.29211
20.12,1.9206,23.14,3.62581,33.14,8.8967,38.64,12.0931,51.64,2.16936
20.14,1.76556,23.16,3.29861,33.16,8.45002,38.66,11.1454,51.66,2.05619
20.16,1.62854,23.18,3.01365,33.18,8.03611,38.68,10.3046,51.68,1.95163
20.18,1.50684,23.2,2.76397,33.2,7.65185,38.7,9.55518,51.7,1.85484
20.2,1.39828,23.22,2.544,33.22,7.29448,38.72,8.88438,51.72,1.76506
20.22,1.30102,23.24,2.34922,33.24,6.96155,38.74,8.28162,51.74,1.68164
20.24,1.21356,23.26,2.17594,33.26,6.65088,38.76,7.73803,,
20.26,1.13462,23.28,2.0211,33.28,6.36053,38.78,7.24612,,
20.28,1.06314,23.3,1.88218,33.3,6.08877,38.8,6.79957,,
20.3,0.998193,23.32,1.75709,33.32,5.83405,38.82,6.39297,,
20.32,0.939017,23.34,1.64404,33.34,5.59497,38.84,6.0217,,
20.34,0.884948,23.36,1.54155,33.36,5.37028,38.86,5.6818,,
20.36,0.835414,23.38,1.44833,33.38,5.15885,38.88,5.36984,,
20.38,0.789922,23.4,1.36331,33.4,4.95965,38.9,5.08284,,
20.4,0.748045,23.42,1.28555,33.42,4.77177,38.92,4.81821,,
20.42,0.709409,23.44,1.21425,33.44,4.59435,38.94,4.57368,,
20.44,0.673689,23.46,1.14872,33.46,4.42665,38.96,4.34729,,
20.46,0.640599,23.48,1.08834,33.48,4.26795,38.98,4.13727,,
20.48,0.609887,23.5,1.0326,33.5,4.11763,39.0,3.94209,,
20.5,0.581331,,,,,39.02,3.76039,,