File: output/03%/voigt/dataset/fitting.csv
111thetas,111intensity,200thetas,200intensity,220thetas,220intensity,311thetas,311intensity,222thetas,222intensity,400thetas,400intensity
18.5,0.2247,21.47,0.697084,31.06,3.00225,37.0,2.08363,50.0,1.56506,51.76,5.14767
18.52,0.232732,21.49,0.719894,31.08,3.09604,37.02,2.15738,50.02,1.63699,51.78,5.53112
18.54,0.241202,21.51,0.743841,31.1,3.1943,37.04,2.23511,50.04,1.71398,51.8,5.95892
18.56,0.250143,21.53,0.769004,31.12,3.29731,37.06,2.31712,50.06,1.79654,51.82,6.43815
18.58,0.259591,21.55,0.795464,31.14,3.40538,37.08,2.40372,50.08,1.88519,51.84,6.97736
18.6,0.269583,21.57,0.823314,31.16,3.51885,37.1,2.49527,50.1,1.98056,51.86,7.58695
18.62,0.280165,21.59,0.852651,31.18,3.63808,37.12,2.59214,50.12,2.08335,51.88,8.27967
18.64,0.291381,21.61,0.883583,31.2,3.76348,37.14,2.69477,50.14,2.19434,51.9,9.07126
18.66,0.303284,21.63,0.916229,31.22,3.89547,37.16,2.8036,50.16,2.31443,51.92,9.98136
18.68,0.315932,21.65,0.950717,31.24,4.03452,37.18,2.91916,50.18,2.44463,51.94,11.0347
18.7,0.329387,21.67,0.987189,31.26,4.18115,37.2,3.042,50.2,2.58612,51.96,12.2627
18.72,0.343721,21.69,1.0258,31.28,4.33592,37.22,3.17276,50.22,2.74023,51.98,13.7061
18.74,0.35901,21.71,1.06672,31.3,4.49943,37.24,3.31213,50.24,2.90851,52.0,15.4176
18.76,0.375343,21.73,1.11013,31.32,4.67237,37.26,3.46088,50.26,3.09275,52.02,17.4675
18.78,0.392815,21.75,1.15625,31.34,4.85547,37.28,3.61986,50.28,3.29503,52.04,19.9498
18.8,0.411536,21.77,1.2053,31.36,5.04955,37.3,3.79005,50.3,3.51777,52.06,22.9936
18.82,0.431627,21.79,1.25754,31.38,5.25548,37.32,3.97251,50.32,3.76382,52.08,26.7789
18.84,0.453226,21.81,1.31324,31.4,5.47427,37.34,4.16846,50.34,4.03654,52.1,31.5624
18.86,0.476486,21.83,1.37273,31.42,5.707,37.36,4.37925,50.36,4.33992,52.12,37.7191
18.88,0.501584,21.85,1.43635,31.44,5.95489,37.38,4.60642,50.38,4.67872,52.14,45.8122
18.9,0.528716,21.87,1.50449,31.46,6.21927,37.4,4.85171,50.4,5.05866,52.16,56.7128
18.92,0.558111,21.89,1.5776,31.48,6.50164,37.42,5.1171,50.42,5.48664,52.18,71.8123
18.94,0.590024,21.91,1.65616,31.5,6.80367,37.44,5.40485,50.44,5.97108,52.2,93.4086
18.96,0.624754,21.93,1.74073,31.52,7.12723,37.46,5.71752,50.46,6.52233,52.22,125.406
18.98,0.662641,21.95,1.83194,31.54,7.47441,37.48,6.05807,50.48,7.15318,52.24,174.502
19.0,0.70408,21.97,1.9305,31.56,7.84757,37.5,6.42993,50.5,7.87966,52.26,251.569
19.02,0.749527,21.99,2.03722,31.58,8.24936,37.52,6.83704,50.52,8.72198,52.28,369.342
19.04,0.799518,22.01,2.15304,31.6,8.68278,37.54,7.28399,50.54,9.70597,52.3,518.68
19.06,0.854677,22.03,2.279,31.62,9.15124,37.56,7.77613,50.56,10.865,52.32,611.088
19.08,0.915743,22.05,2.41633,31.64,9.65862,37.58,8.31977,50.58,12.2428,52.34,545.591
19.1,0.983589,22.07,2.56645,31.66,10.2093,37.6,8.92232,50.6,13.8975,52.36,397.247
19.12,1.05926,22.09,2.73097,31.68,10.8085,37.62,9.59259,50.62,15.9076,52.38,271.02
19.14,1.14399,22.11,2.9118,31.7,11.4619,37.64,10.3411,50.64,18.3813,52.4,186.909
19.16,1.2393,22.13,3.11118,31.72,12.1763,37.66,11.1804,50.66,21.4703,52.42,133.357
19.18,1.34703,22.15,3.3317,31.74,12.9595,37.68,12.1259,50.68,25.3925,52.44,98.6672
19.2,1.46941,22.17,3.57649,31.76,13.8207,37.7,13.1961,50.7,30.4691,52.46,75.4175
19.22,1.60924,22.19,3.8492,31.78,14.7705,37.72,14.4138,50.72,37.1867,52.48,59.27
19.24,1.76997,22.21,4.15425,31.8,15.8216,37.74,15.8073,50.74,46.3065,52.5,47.6818
19.26,1.95601,22.23,4.49696,31.82,16.9886,37.76,17.4121,50.76,59.0603,52.52,39.1224
19.28,2.17292,22.25,4.88375,31.84,18.2895,37.78,19.2728,50.78,77.5121,52.54,32.64
19.3,2.42793,22.27,5.3225,31.86,19.7453,37.8,21.4464,50.8,105.226,52.56,27.6231
19.32,2.73048,22.29,5.82291,31.88,21.3817,37.82,24.0068,50.82,148.409,52.58,23.6664
19.34,3.09313,22.31,6.39707,31.9,23.2297,37.84,27.0506,50.84,217.122,52.6,20.4941
19.36,3.53286,22.33,7.06012,31.92,25.3272,37.86,30.7064,50.86,321.957,52.62,17.9138
19.38,4.07307,22.35,7.83132,31.94,27.7213,37.88,35.1481,50.88,446.62,52.64,15.788
19.4,4.74671,22.37,8.7354,31.96,30.4702,37.9,40.615,50.9,498.801,52.66,14.0167
19.42,5.60135,22.39,9.80451,31.98,33.6475,37.92,47.4436,50.92,416.093,52.68,12.5257
19.44,6.70766,22.41,11.0811,32.0,37.3467,37.94,56.1176,50.94,291.16,52.7,11.2592
19.46,8.17415,22.43,12.6221,32.02,41.6879,37.96,67.3509,50.96,196.136,52.72,10.1745
19.48,10.1741,22.45,14.5051,32.04,46.8279,37.98,82.2278,50.98,135.223,52.74,9.23862
19.5,12.9971,22.47,16.8381,32.06,52.9741,38.0,102.449,51.0,96.8555,52.76,8.42562
19.52,17.1555,22.49,19.7747,32.08,60.4051,38.02,130.782,51.02,72.0107,52.78,7.71498
19.54,23.6188,22.51,23.5388,32.1,69.5024,38.04,171.893,51.04,55.3044,52.8,7.09027
19.56,34.3801,22.53,28.4665,32.12,80.7984,38.06,233.937,51.06,43.6502,52.82,6.53822
19.58,53.9582,22.55,35.0782,32.14,95.0541,38.08,331.393,51.08,35.2488,52.84,6.04803
19.6,93.6512,22.57,44.2105,32.16,113.385,38.1,488.682,51.1,29.0167,52.86,5.6108
19.62,181.102,22.59,57.2635,32.18,137.474,38.12,734.801,51.12,24.2785,52.88,5.21921
19.64,326.333,22.61,76.6877,32.2,169.951,38.14,1040.21,51.14,20.5985,52.9,4.86712
19.66,302.505,22.63,106.959,32.22,215.083,38.16,1179.79,51.16,17.687,52.92,4.54941
19.68,160.105,22.65,156.458,32.24,280.108,38.18,980.674,51.18,15.3462,52.94,4.26176
19.7,84.1409,22.67,240.018,32.26,377.914,38.2,676.753,51.2,13.4374,52.96,4.00049
19.72,49.4498,22.69,373.986,32.28,532.617,38.22,450.163,51.22,11.8611,52.98,3.76249
19.74,31.9908,22.71,522.428,32.3,790.947,38.24,307.595,51.24,10.5451,53.0,3.54507
19.76,22.2251,22.73,529.919,32.32,1239.99,38.26,218.987,51.26,9.43519,53.02,3.34593
19.78,16.2791,22.75,385.696,32.34,1984.22,38.28,162.133,51.28,8.49085,53.04,3.16309
19.8,12.4129,22.77,248.074,32.36,2802.19,38.3,124.148,51.3,7.68082,53.06,2.99481
19.82,9.76632,22.79,161.236,32.38,2738.84,38.32,97.7723,51.32,6.98092,53.08,2.83959
19.84,7.87879,22.81,109.82,32.4,1891.29,38.34,78.8231,51.34,6.37213,53.1,2.69612
19.86,6.48709,22.83,78.4792,32.42,1179.62,38.36,64.8035,51.36,5.83934,53.12,2.56323
19.88,5.43242,22.85,58.4408,32.44,756.382,38.38,54.1661,51.38,5.37047,53.14,2.43993
19.9,4.61453,22.87,45.0184,32.46,512.346,38.4,45.9178,51.4,4.9557,53.16,2.3253
19.92,3.96775,22.89,35.6536,32.48,365.377,38.42,39.4008,51.42,4.58706,53.18,2.21855
19.94,3.4476,22.91,28.8893,32.5,271.935,38.44,34.1668,51.44,4.25796,53.2,2.11898
19.96,3.02316,22.93,23.8579,32.52,209.504,38.46,29.9025,51.46,3.96296,53.22,2.02596
19.98,2.67236,22.95,20.0211,32.54,165.992,38.48,26.3841,51.48,3.69752,53.24,1.93892
20.0,2.37913,22.97,17.0321,32.56,134.573,38.5,23.4482,51.5,3.45782,53.26,1.85737
20.02,2.13155,22.99,14.6605,32.58,111.199,38.52,20.9738,51.52,3.24065,53.28,1.78086
20.04,1.92064,23.01,12.7484,32.6,93.3693,38.54,18.8695,51.54,3.04328,53.3,1.70897
20.06,1.7395,23.03,11.1851,32.62,79.4734,38.56,17.0653,51.56,2.86337,53.32,1.64135
20.08,1.5828,23.05,9.89111,32.64,68.4423,38.58,15.5069,51.58,2.69893,53.34,1.57766
20.1,1.44633,23.07,8.80827,32.66,59.5442,38.6,14.1519,51.6,2.54823,53.36,1.5176
20.12,1.32675,23.09,7.89321,32.68,52.2657,38.62,12.9664,51.62,2.40979,53.38,1.4609
20.14,1.2214,23.11,7.11312,32.7,46.2382,38.64,11.9234,51.64,2.28232,53.4,1.40732
20.16,1.1281,23.13,6.44279,32.72,41.1919,38.66,11.001,51.66,2.16469,53.42,1.35664
20.18,1.04509,23.15,5.86264,32.74,36.9256,38.68,10.1813,51.68,2.05591,53.44,1.30864
20.2,0.970911,23.17,5.35722,32.76,33.287,38.7,9.44974,51.7,1.95512,53.46,1.26314
20.22,0.904349,23.19,4.91427,32.78,30.1592,38.72,8.79409,51.72,1.86155,53.48,1.21997
20.24,0.8444,23.21,4.52393,32.8,27.4512,38.74,8.20424,51.74,1.77454,53.5,1.17898
20.26,0.790215,23.23,4.17821,32.82,25.0912,38.76,7.67168,,,,
20.28,0.74108,23.25,3.87057,32.84,23.0222,38.78,7.18924,,,,
20.3,0.696387,23.27,3.59563,32.86,21.1984,38.8,6.75084,,,,
20.32,0.655615,23.29,3.34891,32.88,19.5826,38.82,6.35128,,,,
20.34,0.61832,23.31,3.12671,32.9,18.1443,38.84,5.98611,,,,
20.36,0.584118,23.33,2.92587,32.92,16.8586,38.86,5.65151,,,,
20.38,0.552675,23.35,2.74374,32.94,15.7047,38.88,5.34415,,,,
20.4,0.523704,23.37,2.57808,32.96,14.6651,38.9,5.06118,,,,
20.42,0.496951,23.39,2.42697,32.98,13.7252,38.92,4.80006,,,,
20.44,0.472196,23.41,2.28874,33.0,12.8728,38.94,4.55862,,,,
20.46,0.449245,23.43,2.16198,33.02,12.0973,38.96,4.33493,,,,
20.48,0.427927,23.45,2.04545,33.04,11.3897,38.98,4.12729,,,,
20.5,0.40809,23.47,1.93809,33.06,10.7424,39.0,3.9342,,,,
20.52,0.389601,23.49,1.83896,33.08,10.1486,,,,,,
20.54,0.37234,23.51,1.74723,33.1,9.60274,,,,,,
20.56,0.356201,23.53,1.66219,33.12,9.0997,,,,,,