File: data/fitting/input/peaks.csv
110theta,110intensity,200theta,200intensity,211theta,211intensity,220theta,220intensity,310theta,310intensity,222theta,222intensity
19,375,27.5,166.667,34,266.667,40,204.167,45,100,49.5,70.8333
19.018,425,27.518,216.667,34.018,245.833,40.018,183.333,45.018,62.5,49.518,104.167
19.036,329.167,27.536,216.667,34.036,345.833,40.036,200,45.036,79.1667,49.536,79.1667
19.054,358.333,27.554,125,34.054,266.667,40.054,216.667,45.054,83.3333,49.554,83.3333
19.072,370.833,27.572,233.333,34.072,258.333,40.072,137.5,45.072,66.6667,49.572,108.333
19.09,354.167,27.59,187.5,34.09,233.333,40.09,191.667,45.09,66.6667,49.59,108.333
19.108,425,27.608,208.333,34.108,270.833,40.108,170.833,45.108,91.6667,49.608,112.5
19.126,425,27.626,183.333,34.126,275,40.126,133.333,45.126,112.5,49.626,87.5
19.144,450,27.644,154.167,34.144,295.833,40.144,166.667,45.144,141.667,49.644,104.167
19.162,400,27.662,254.167,34.162,191.667,40.162,112.5,45.162,108.333,49.662,108.333
19.18,404.167,27.68,158.333,34.18,266.667,40.18,141.667,45.18,79.1667,49.68,95.8333
19.198,425,27.698,216.667,34.198,283.333,40.198,170.833,45.198,79.1667,49.698,120.833
19.216,420.833,27.716,187.5,34.216,266.667,40.216,129.167,45.216,104.167,49.716,116.667
19.234,583.333,27.734,220.833,34.234,262.5,40.234,112.5,45.234,87.5,49.734,112.5
19.252,475,27.752,175,34.252,362.5,40.252,187.5,45.252,83.3333,49.752,95.8333
19.27,433.333,27.77,229.167,34.27,308.333,40.27,133.333,45.27,91.6667,49.77,87.5
19.288,454.167,27.788,233.333,34.288,266.667,40.288,137.5,45.288,95.8333,49.788,75
19.306,425,27.806,220.833,34.306,320.833,40.306,162.5,45.306,91.6667,49.806,108.333
19.324,533.333,27.824,212.5,34.324,283.333,40.324,170.833,45.324,41.6667,49.824,104.167
19.342,566.667,27.842,245.833,34.342,279.167,40.342,120.833,45.342,100,49.842,95.8333
19.36,637.5,27.86,262.5,34.36,283.333,40.36,187.5,45.36,100,49.86,58.3333
19.378,633.333,27.878,216.667,34.378,370.833,40.378,145.833,45.378,58.3333,49.878,83.3333
19.396,570.833,27.896,233.333,34.396,362.5,40.396,112.5,45.396,54.1667,49.896,100
19.414,545.833,27.914,254.167,34.414,333.333,40.414,120.833,45.414,75,49.914,145.833
19.432,512.5,27.932,237.5,34.432,241.667,40.432,154.167,45.432,79.1667,49.932,104.167
19.45,695.833,27.95,250,34.45,287.5,40.45,154.167,45.45,112.5,49.95,91.6667
19.468,770.833,27.968,275,34.468,304.167,40.468,150,45.468,62.5,49.968,70.8333
19.486,645.833,27.986,229.167,34.486,320.833,40.486,170.833,45.486,79.1667,49.986,95.8333
19.504,666.667,28.004,225,34.504,291.667,40.504,154.167,45.504,120.833,50.004,95.8333
19.522,675,28.022,270.833,34.522,350,40.522,154.167,45.522,87.5,50.022,108.333
19.54,616.667,28.04,329.167,34.54,337.5,40.54,120.833,45.54,62.5,50.04,141.667
19.558,741.667,28.058,262.5,34.558,345.833,40.558,158.333,45.558,54.1667,50.058,120.833
19.576,891.667,28.076,237.5,34.576,345.833,40.576,145.833,45.576,125,50.076,95.8333
19.594,775,28.094,304.167,34.594,316.667,40.594,175,45.594,108.333,50.094,129.167
19.612,670.833,28.112,233.333,34.612,350,40.612,129.167,45.612,79.1667,50.112,125
19.63,758.333,28.13,312.5,34.63,350,40.63,112.5,45.63,108.333,50.13,79.1667
19.648,779.167,28.148,308.333,34.648,412.5,40.648,179.167,45.648,133.333,50.148,108.333
19.666,845.833,28.166,275,34.666,320.833,40.666,145.833,45.666,104.167,50.166,100
19.684,1041.67,28.184,220.833,34.684,345.833,40.684,241.667,45.684,125,50.184,95.8333
19.702,883.333,28.202,300,34.702,304.167,40.702,170.833,45.702,129.167,50.202,112.5
19.72,845.833,28.22,275,34.72,437.5,40.72,233.333,45.72,91.6667,50.22,129.167
19.738,891.667,28.238,308.333,34.738,408.333,40.738,212.5,45.738,100,50.238,133.333
19.756,929.167,28.256,370.833,34.756,329.167,40.756,245.833,45.756,158.333,50.256,104.167
19.774,1025,28.274,320.833,34.774,462.5,40.774,258.333,45.774,87.5,50.274,179.167
19.792,1229.17,28.292,379.167,34.792,429.167,40.792,333.333,45.792,120.833,50.292,141.667
19.81,1325,28.31,400,34.81,383.333,40.81,375,45.81,129.167,50.31,125
19.828,1229.17,28.328,345.833,34.828,404.167,40.828,379.167,45.828,187.5,50.328,141.667
19.846,1783.33,28.346,425,34.846,375,40.846,491.667,45.846,191.667,50.346,145.833
19.864,1870.83,28.364,470.833,34.864,466.667,40.864,729.167,45.864,233.333,50.364,129.167
19.882,1783.33,28.382,487.5,34.882,425,40.882,829.167,45.882,233.333,50.382,141.667
19.9,2429.17,28.4,541.667,34.9,479.167,40.9,1233.33,45.9,270.833,50.4,154.167
19.918,2925,28.418,775,34.918,483.333,40.918,1912.5,45.918,362.5,50.418,154.167
19.936,2337.5,28.436,737.5,34.936,570.833,40.936,2362.5,45.936,366.667,50.436,112.5
19.954,3716.67,28.454,987.5,34.954,541.667,40.954,2800,45.954,433.333,50.454,150
19.972,4987.5,28.472,1441.67,34.972,545.833,40.972,2758.33,45.972,662.5,50.472,116.667
19.99,4762.5,28.49,1575,34.99,554.167,40.99,2104.17,45.99,833.333,50.49,183.333
20.008,6437.5,28.508,1912.5,35.008,600,41.008,1525,46.008,958.333,50.508,195.833
20.026,9245.83,28.526,2933.33,35.026,650,41.026,1345.83,46.026,1262.5,50.526,200
20.044,8200,28.544,3641.67,35.044,887.5,41.044,800,46.044,1375,50.544,250
20.062,11300,28.562,4366.67,35.062,1129.17,41.062,550,46.062,1379.17,50.562,283.333
20.08,17358.3,28.58,6954.17,35.08,1104.17,41.08,516.667,46.08,1358.33,50.58,312.5
20.098,19900,28.598,9079.17,35.098,1479.17,41.098,520.833,46.098,1008.33,50.598,295.833
20.116,27950,28.616,12145.8,35.116,1820.83,41.116,604.167,46.116,641.667,50.616,391.667
20.134,48891.7,28.634,15637.5,35.134,2304.17,41.134,670.833,46.134,508.333,50.634,525
20.152,60454.2,28.652,17925,35.152,3179.17,41.152,908.333,46.152,379.167,50.652,762.5
20.17,55237.5,28.67,14037.5,35.17,4054.17,41.17,887.5,46.17,304.167,50.67,1133.33
20.188,43800,28.688,10562.5,35.188,5108.33,41.188,1075,46.188,337.5,50.688,1383.33
20.206,25941.7,28.706,7375,35.206,7300,41.206,1458.33,46.206,395.833,50.706,1804.17
20.224,18854.2,28.724,4929.17,35.224,10466.7,41.224,1654.17,46.224,325,50.724,2595.83
20.242,22245.8,28.742,4745.83,35.242,13812.5,41.242,1666.67,46.242,312.5,50.742,3208.33
20.26,27487.5,28.76,4745.83,35.26,19708.3,41.26,1245.83,46.26,412.5,50.76,3362.5
20.278,29970.8,28.778,5191.67,35.278,24762.5,41.278,729.167,46.278,475,50.778,3125
20.296,29662.5,28.796,7150,35.296,24233.3,41.296,533.333,46.296,545.833,50.796,2445.83
20.314,20316.7,28.814,9412.5,35.314,18629.2,41.314,370.833,46.314,625,50.814,1808.33
20.332,10516.7,28.832,9887.5,35.332,12354.2,41.332,245.833,46.332,891.667,50.832,1304.17
20.35,6145.83,28.85,8362.5,35.35,6900,41.35,220.833,46.35,754.167,50.85,795.833
20.368,4133.33,28.868,5416.67,35.368,4912.5,41.368,254.167,46.368,737.5,50.868,537.5
20.386,2495.83,28.886,2987.5,35.386,4270.83,41.386,204.167,46.386,583.333,50.886,529.167
20.404,2066.67,28.904,1687.5,35.404,4291.67,41.404,208.333,46.404,525,50.904,554.167
20.422,1841.67,28.922,1241.67,35.422,4679.17,41.422,195.833,46.422,300,50.922,454.167
20.44,1470.83,28.94,895.833,35.44,6279.17,41.44,137.5,46.44,300,50.94,445.833
20.458,1600,28.958,750,35.458,7662.5,41.458,133.333,46.458,262.5,50.958,545.833
20.476,1675,28.976,600,35.476,10225,41.476,154.167,46.476,170.833,50.976,558.333
20.494,1425,28.994,487.5,35.494,12562.5,41.494,229.167,46.494,150,50.994,637.5
20.512,1170.83,29.012,429.167,35.512,13541.7,41.512,212.5,46.512,120.833,51.012,795.833
20.53,1320.83,29.03,387.5,35.53,11104.2,41.53,166.667,46.53,162.5,51.03,945.833
20.548,1158.33,29.048,433.333,35.548,7358.33,41.548,150,46.548,79.1667,51.048,1425
20.566,1179.17,29.066,425,35.566,4125,41.566,129.167,46.566,195.833,51.066,1820.83
20.584,1387.5,29.084,458.333,35.584,2475,41.584,154.167,46.584,91.6667,51.084,1954.17
20.602,1175,29.102,379.167,35.602,1695.83,41.602,137.5,46.602,75,51.102,1712.5
20.62,1062.5,29.12,350,35.62,1245.83,41.62,120.833,46.62,104.167,51.12,1558.33
20.638,995.833,29.138,354.167,35.638,995.833,41.638,120.833,46.638,83.3333,51.138,1120.83
20.656,1025,29.156,420.833,35.656,829.167,41.656,125,46.656,79.1667,51.156,908.333
20.674,1037.5,29.174,345.833,35.674,750,41.674,95.8333,46.674,95.8333,51.174,579.167
20.692,1254.17,29.192,345.833,35.692,550,41.692,95.8333,46.692,87.5,51.192,370.833
20.71,1141.67,29.21,325,35.71,629.167,41.71,87.5,46.71,104.167,51.21,325
20.728,1033.33,29.228,333.333,35.728,520.833,41.728,145.833,46.728,145.833,51.228,241.667
20.746,1029.17,29.246,387.5,35.746,554.167,41.746,91.6667,46.746,100,51.246,275
20.764,1141.67,29.264,391.667,35.764,475,41.764,204.167,46.764,91.6667,51.264,225
20.782,895.833,29.282,304.167,35.782,554.167,41.782,129.167,46.782,70.8333,51.282,204.167
20.8,1179.17,29.3,362.5,35.8,500,41.8,133.333,46.8,83.3333,51.3,150
20.818,1133.33,29.318,333.333,35.818,516.667,41.818,79.1667,46.818,79.1667,51.318,129.167
20.836,1029.17,29.336,266.667,35.836,508.333,41.836,133.333,46.836,62.5,51.336,187.5
20.854,933.333,29.354,316.667,35.854,412.5,41.854,104.167,46.854,100,51.354,158.333
20.872,1000,29.372,316.667,35.872,458.333,41.872,108.333,46.872,100,51.372,162.5
20.89,1112.5,29.39,350,35.89,437.5,41.89,133.333,46.89,83.3333,51.39,125
20.908,904.167,29.408,279.167,35.908,470.833,41.908,104.167,46.908,137.5,51.408,137.5
20.926,1125,29.426,308.333,35.926,370.833,41.926,83.3333,46.926,91.6667,51.426,112.5
20.944,920.833,29.444,312.5,35.944,470.833,41.944,158.333,46.944,87.5,51.444,108.333
20.962,775,29.462,308.333,35.962,454.167,41.962,116.667,46.962,91.6667,51.462,108.333
20.98,916.667,29.48,291.667,35.98,354.167,41.98,141.667,46.98,83.3333,51.48,141.667
20.998,866.667,29.498,337.5,35.998,358.333,41.998,108.333,46.998,116.667,51.498,133.333
21,1158.33,29.5,337.5,36,458.333,42,154.167,47,112.5,51.5,125