File: data/20%.csv
111theta,111intensity,200theta,200intensity,220theta,220intensity,311theta,311intensity,222theta,222intensity,400theta,400intensity
18.5,20.8,21.5,54.2,31,95.8,37,112.5,49.5,79.2,51.89,112.5
18.52,37.5,21.52,50,31.02,133.3,37.02,104.2,49.52,70.8,51.91,133.3
18.54,8.3,21.54,66.7,31.04,112.5,37.04,104.2,49.54,87.5,51.93,112.5
18.56,41.7,21.56,50,31.06,95.8,37.06,116.7,49.56,79.2,51.95,112.5
18.58,37.5,21.58,58.3,31.08,116.7,37.08,104.2,49.58,54.2,51.97,104.2
18.6,66.7,21.6,37.5,31.1,104.2,37.1,79.2,49.6,70.8,51.99,112.5
18.62,70.8,21.62,66.7,31.12,87.5,37.12,129.2,49.62,125,52.01,137.5
18.64,41.7,21.64,45.8,31.14,100,37.14,125,49.64,100,52.03,125
18.66,62.5,21.66,37.5,31.16,150,37.16,95.8,49.66,95.8,52.05,137.5
18.68,37.5,21.68,37.5,31.18,145.8,37.18,112.5,49.68,108.3,52.07,133.3
18.7,54.2,21.7,66.7,31.2,100,37.2,108.3,49.7,54.2,52.09,208.3
18.72,25,21.72,104.2,31.22,141.7,37.22,129.2,49.72,66.7,52.11,191.7
18.74,50,21.74,70.8,31.24,100,37.24,137.5,49.74,54.2,52.13,183.3
18.76,37.5,21.76,54.2,31.26,137.5,37.26,154.2,49.76,79.2,52.15,191.7
18.78,33.3,21.78,37.5,31.28,129.2,37.28,79.2,49.78,91.7,52.17,250
18.8,58.3,21.8,58.3,31.3,100,37.3,75,49.8,62.5,52.19,254.2
18.82,33.3,21.82,41.7,31.32,112.5,37.32,179.2,49.82,100,52.21,291.7
18.84,29.2,21.84,41.7,31.34,116.7,37.34,137.5,49.84,95.8,52.23,275
18.86,33.3,21.86,66.7,31.36,116.7,37.36,104.2,49.86,100,52.25,400
18.88,37.5,21.88,66.7,31.38,120.8,37.38,150,49.88,75,52.27,433.3
18.9,33.3,21.9,58.3,31.4,125,37.4,137.5,49.9,104.2,52.29,558.3
18.92,33.3,21.92,58.3,31.42,104.2,37.42,129.2,49.92,91.7,52.31,458.3
18.94,37.5,21.94,54.2,31.44,125,37.44,129.2,49.94,83.3,52.33,641.7
18.96,37.5,21.96,75,31.46,125,37.46,95.8,49.96,104.2,52.35,479.2
18.98,54.2,21.98,66.7,31.48,154.2,37.48,104.2,49.98,87.5,52.37,625
19,29.2,22,54.2,31.5,116.7,37.5,129.2,50,70.8,52.39,575
19.02,45.8,22.02,33.3,31.52,175,37.52,162.5,50.02,116.7,52.41,516.7
19.04,70.8,22.04,29.2,31.54,133.3,37.54,145.8,50.04,120.8,52.43,425
19.06,50,22.06,33.3,31.56,116.7,37.56,87.5,50.06,100,52.45,416.7
19.08,58.3,22.08,62.5,31.58,141.7,37.58,125,50.08,91.7,52.47,408.3
19.1,37.5,22.1,66.7,31.6,150,37.6,125,50.1,83.3,52.49,291.7
19.12,75,22.12,58.3,31.62,154.2,37.62,183.3,50.12,87.5,52.51,341.7
19.14,54.2,22.14,108.3,31.64,120.8,37.64,154.2,50.14,70.8,52.53,279.2
19.16,33.3,22.16,70.8,31.66,145.8,37.66,120.8,50.16,66.7,52.55,350
19.18,62.5,22.18,54.2,31.68,141.7,37.68,91.7,50.18,91.7,52.57,258.3
19.2,41.7,22.2,70.8,31.7,141.7,37.7,145.8,50.2,112.5,52.59,295.8
19.22,37.5,22.22,83.3,31.72,120.8,37.72,141.7,50.22,83.3,52.61,287.5
19.24,70.8,22.24,100,31.74,137.5,37.74,129.2,50.24,58.3,52.63,395.8
19.26,70.8,22.26,58.3,31.76,162.5,37.76,141.7,50.26,75,52.65,366.7
19.28,75,22.28,54.2,31.78,116.7,37.78,145.8,50.28,70.8,52.67,379.2
19.3,70.8,22.3,91.7,31.8,137.5,37.8,191.7,50.3,112.5,52.69,391.7
19.32,45.8,22.32,87.5,31.82,141.7,37.82,141.7,50.32,112.5,52.71,408.3
19.34,62.5,22.34,129.2,31.84,175,37.84,166.7,50.34,91.7,52.73,341.7
19.36,58.3,22.36,54.2,31.86,187.5,37.86,183.3,50.36,91.7,52.75,266.7
19.38,58.3,22.38,87.5,31.88,158.3,37.88,191.7,50.38,120.8,52.77,345.8
19.4,79.2,22.4,70.8,31.9,154.2,37.9,179.2,50.4,137.5,52.79,241.7
19.42,145.8,22.42,83.3,31.92,216.7,37.92,191.7,50.42,95.8,52.81,225
19.44,120.8,22.44,66.7,31.94,208.3,37.94,254.2,50.44,75,52.83,241.7
19.46,150,22.46,116.7,31.96,204.2,37.96,225,50.46,104.2,52.85,195.8
19.48,116.7,22.48,125,31.98,204.2,37.98,258.3,50.48,154.2,52.87,212.5
19.5,120.8,22.5,150,32,166.7,38,341.7,50.5,91.7,52.89,137.5
19.52,179.2,22.52,154.2,32.02,216.7,38.02,337.5,50.52,108.3,52.91,79.2
19.54,150,22.54,154.2,32.04,295.8,38.04,433.3,50.54,120.8,52.93,166.7
19.56,170.8,22.56,229.2,32.06,229.2,38.06,541.7,50.56,100,52.95,125
19.58,245.8,22.58,241.7,32.08,308.3,38.08,770.8,50.58,120.8,52.97,154.2
19.6,275,22.6,225,32.1,341.7,38.1,733.3,50.6,129.2,52.99,104.2
19.62,300,22.62,262.5,32.12,429.2,38.12,1079.2,50.62,129.2,53.01,137.5
19.64,412.5,22.64,333.3,32.14,275,38.14,1262.5,50.64,91.7,53.03,120.8
19.66,420.8,22.66,454.2,32.16,404.2,38.16,1558.3,50.66,133.3,53.05,129.2
19.68,450,22.68,487.5,32.18,541.7,38.18,1512.5,50.68,179.2,53.07,104.2
19.7,362.5,22.7,595.8,32.2,616.7,38.2,1470.8,50.7,162.5,53.09,120.8
19.72,291.7,22.72,591.7,32.22,700,38.22,1291.7,50.72,141.7,53.11,120.8
19.74,233.3,22.74,691.7,32.24,875,38.24,1100,50.74,187.5,53.13,145.8
19.76,250,22.76,779.2,32.26,1166.7,38.26,841.7,50.76,250,53.15,83.3
19.78,262.5,22.78,666.7,32.28,1450,38.28,900,50.78,175,53.17,75
19.8,200,22.8,666.7,32.3,1841.7,38.3,741.7,50.8,275,53.19,70.8
19.82,200,22.82,541.7,32.32,2325,38.32,766.7,50.82,325,53.21,112.5
19.84,162.5,22.84,466.7,32.34,3279.2,38.34,737.5,50.84,395.8,53.23,87.5
19.86,137.5,22.86,537.5,32.36,4225,38.36,870.8,50.86,454.2,53.25,150
19.88,108.3,22.88,500,32.38,5091.7,38.38,833.3,50.88,541.7,53.27,116.7
19.9,87.5,22.9,429.2,32.4,5666.7,38.4,904.2,50.9,591.7,53.29,95.8
19.92,83.3,22.92,445.8,32.42,5083.3,38.42,808.3,50.92,695.8,53.31,70.8
19.94,54.2,22.94,312.5,32.44,4350,38.44,858.3,50.94,612.5,53.33,79.2
19.96,66.7,22.96,320.8,32.46,3454.2,38.46,737.5,50.96,579.2,53.35,83.3
19.98,50,22.98,204.2,32.48,2808.3,38.48,637.5,50.98,487.5,53.37,91.7
20,79.2,23,133.3,32.5,2445.8,38.5,445.8,51,454.2,53.39,125
20.02,79.2,23.02,116.7,32.52,2304.2,38.52,425,51.02,395.8,53.41,95.8
20.04,83.3,23.04,162.5,32.54,2562.5,38.54,391.7,51.04,333.3,53.43,83.3
20.06,50,23.06,87.5,32.56,2883.3,38.56,329.2,51.06,270.8,53.45,112.5
20.08,79.2,23.08,100,32.58,3129.2,38.58,233.3,51.08,304.2,53.47,133.3
20.1,41.7,23.1,108.3,32.6,3379.2,38.6,241.7,51.1,270.8,53.49,112.5
20.12,70.8,23.12,95.8,32.62,3095.8,38.62,183.3,51.12,250,53.51,100
20.14,45.8,23.14,70.8,32.64,2550,38.64,200,51.14,291.7,53.53,108.3
20.16,62.5,23.16,66.7,32.66,1925,38.66,125,51.16,258.3,53.55,91.7
20.18,83.3,23.18,70.8,32.68,1358.3,38.68,141.7,51.18,312.5,53.57,108.3
20.2,87.5,23.2,91.7,32.7,1158.3,38.7,133.3,51.2,358.3,53.59,79.2
20.22,50,23.22,41.7,32.72,887.5,38.72,158.3,51.22,383.3,53.61,83.3
20.24,87.5,23.24,54.2,32.74,679.2,38.74,137.5,51.24,387.5,53.63,83.3
20.26,70.8,23.26,66.7,32.76,612.5,38.76,137.5,51.26,412.5,53.65,75
20.28,79.2,23.28,70.8,32.78,458.3,38.78,125,51.28,454.2,53.67,91.7
20.3,54.2,23.3,66.7,32.8,420.8,38.8,154.2,51.3,383.3,53.69,79.2
20.32,70.8,23.32,58.3,32.82,375,38.82,137.5,51.32,191.7,53.71,129.2
20.34,25,23.34,66.7,32.84,337.5,38.84,112.5,51.34,208.3,53.73,87.5
20.36,54.2,23.36,75,32.86,333.3,38.86,116.7,51.36,266.7,53.75,83.3
20.38,50,23.38,45.8,32.88,275,38.88,108.3,51.38,208.3,53.77,108.3
20.4,75,23.4,62.5,32.9,320.8,38.9,133.3,51.4,225,53.79,120.8
20.42,54.2,23.42,50,32.92,229.2,38.92,120.8,51.42,175,53.81,95.8
20.44,70.8,23.44,45.8,32.94,254.2,38.94,112.5,51.44,145.8,53.83,91.7
20.46,62.5,23.46,79.2,32.96,254.2,38.96,100,51.46,158.3,53.85,75
20.48,45.8,23.48,66.7,32.98,187.5,38.98,100,51.48,166.7,53.87,120.8
20.5,54.2,23.5,50,33,295.8,39,108.3,51.5,154.2,53.89,95.8
20.52,58.3,23.52,79.2,33.02,204.2,39.02,104.2,51.52,112.5,53.91,66.7
20.54,45.8,23.54,54.2,33.04,191.7,39.04,150,51.54,112.5,53.93,75
20.56,50,23.56,62.5,33.06,225,39.06,129.2,51.56,120.8,53.95,75
20.58,50,23.58,62.5,33.08,141.7,39.08,91.7,51.58,137.5,53.97,70.8
20.6,66.7,23.6,62.5,33.1,208.3,39.1,116.7,51.6,108.3,53.99,79.2
20.62,33.3,23.62,54.2,33.12,245.8,39.12,108.3,51.62,129.2,,
20.64,70.8,23.64,75,33.14,191.7,39.14,83.3,51.64,104.2,,
20.66,37.5,23.66,58.3,33.16,220.8,39.16,100,51.66,145.8,,
20.68,54.2,23.68,83.3,33.18,170.8,39.18,91.7,51.68,187.5,,
20.7,58.3,23.7,70.8,33.2,204.2,39.2,116.7,51.7,145.8,,
20.72,58.3,23.72,66.7,33.22,179.2,39.22,116.7,51.72,100,,
20.74,70.8,23.74,58.3,33.24,183.3,39.24,116.7,51.74,95.8,,
20.76,75,23.76,58.3,33.26,212.5,39.26,125,51.76,133.3,,
20.78,54.2,23.78,70.8,33.28,191.7,39.28,87.5,51.78,116.7,,
20.8,41.7,23.8,66.7,33.3,200,39.3,87.5,51.8,100,,
20.82,41.7,23.82,58.3,33.32,200,39.32,112.5,51.82,133.3,,
20.84,29.2,23.84,83.3,33.34,183.3,39.34,87.5,51.84,108.3,,
20.86,70.8,23.86,66.7,33.36,129.2,39.36,150,51.86,104.2,,
20.88,54.2,23.88,50,33.38,183.3,39.38,133.3,51.88,100,,
20.9,70.8,23.9,104.2,33.4,158.3,39.4,100,,,,
20.92,37.5,23.92,41.7,33.42,133.3,39.42,95.8,,,,
20.94,54.2,23.94,58.3,33.44,191.7,39.44,100,,,,
20.96,45.8,23.96,83.3,33.46,175,39.46,75,,,,
20.98,54.2,23.98,83.3,33.48,141.7,39.48,137.5,,,,
21,41.7,24,58.3,33.5,141.7,39.5,83.3,,,,
,,,,33.52,187.5,,,,,,
,,,,33.54,166.7,,,,,,
,,,,33.56,120.8,,,,,,
,,,,33.58,137.5,,,,,,
,,,,33.6,191.7,,,,,,
,,,,33.62,179.2,,,,,,
,,,,33.64,162.5,,,,,,
,,,,33.66,220.8,,,,,,
,,,,33.68,133.3,,,,,,
,,,,33.7,162.5,,,,,,
,,,,33.72,179.2,,,,,,
,,,,33.74,158.3,,,,,,
,,,,33.76,183.3,,,,,,
,,,,33.78,191.7,,,,,,
,,,,33.8,137.5,,,,,,
,,,,33.82,91.7,,,,,,
,,,,33.84,195.8,,,,,,
,,,,33.86,195.8,,,,,,
,,,,33.88,158.3,,,,,,
,,,,33.9,200,,,,,,
,,,,33.92,179.2,,,,,,
,,,,33.94,150,,,,,,
,,,,33.96,154.2,,,,,,
,,,,33.98,166.7,,,,,,
,,,,34,137.5,,,,,,