File: data/40%.csv
111theta,111intensity,200theta,200intensity,220theta,220intensity,311theta,311intensity,222theta,222intensity,400theta,400intensity
18.5,75,21.5,54.2,31,87.5,37,87.5,49.5,79.2,51.9,120.8
18.52,50,21.52,87.5,31.02,91.7,37.02,100,49.52,104.2,51.92,100
18.54,79.2,21.54,95.8,31.04,83.3,37.04,120.8,49.54,83.3,51.94,95.8
18.56,50,21.56,83.3,31.06,62.5,37.06,150,49.56,79.2,51.96,129.2
18.58,62.5,21.58,75,31.08,75,37.08,133.3,49.58,66.7,51.98,145.8
18.6,41.7,21.6,75,31.1,95.8,37.1,116.7,49.6,108.3,52,179.2
18.62,45.8,21.62,58.3,31.12,70.8,37.12,129.2,49.62,79.2,52.02,154.2
18.64,66.7,21.64,75,31.14,100,37.14,112.5,49.64,108.3,52.04,187.5
18.66,66.7,21.66,79.2,31.16,79.2,37.16,133.3,49.66,50,52.06,220.8
18.68,66.7,21.68,45.8,31.18,70.8,37.18,145.8,49.68,83.3,52.08,204.2
18.7,62.5,21.7,75,31.2,108.3,37.2,70.8,49.7,129.2,52.1,208.3
18.72,79.2,21.72,95.8,31.22,87.5,37.22,137.5,49.72,66.7,52.12,187.5
18.74,54.2,21.74,75,31.24,91.7,37.24,104.2,49.74,104.2,52.14,195.8
18.76,75,21.76,95.8,31.26,104.2,37.26,129.2,49.76,108.3,52.16,233.3
18.78,37.5,21.78,66.7,31.28,125,37.28,104.2,49.78,45.8,52.18,279.2
18.8,70.8,21.8,66.7,31.3,66.7,37.3,141.7,49.8,91.7,52.2,258.3
18.82,54.2,21.82,75,31.32,120.8,37.32,154.2,49.82,41.7,52.22,279.2
18.84,58.3,21.84,87.5,31.34,154.2,37.34,91.7,49.84,95.8,52.24,283.3
18.86,50,21.86,75,31.36,87.5,37.36,108.3,49.86,50,52.26,358.3
18.88,79.2,21.88,45.8,31.38,112.5,37.38,104.2,49.88,83.3,52.28,370.8
18.9,62.5,21.9,104.2,31.4,116.7,37.4,137.5,49.9,70.8,52.3,458.3
18.92,79.2,21.92,50,31.42,108.3,37.42,137.5,49.92,87.5,52.32,420.8
18.94,91.7,21.94,108.3,31.44,133.3,37.44,162.5,49.94,79.2,52.34,379.2
18.96,79.2,21.96,70.8,31.46,120.8,37.46,125,49.96,120.8,52.36,375
18.98,41.7,21.98,120.8,31.48,91.7,37.48,112.5,49.98,62.5,52.38,466.7
19,70.8,22,66.7,31.5,108.3,37.5,187.5,50,66.7,52.4,420.8
19.02,50,22.02,83.3,31.52,112.5,37.52,129.2,50.02,112.5,52.42,362.5
19.04,41.7,22.04,79.2,31.54,158.3,37.54,150,50.04,70.8,52.44,308.3
19.06,58.3,22.06,100,31.56,133.3,37.56,129.2,50.06,87.5,52.46,300
19.08,125,22.08,137.5,31.58,166.7,37.58,145.8,50.08,100,52.48,283.3
19.1,95.8,22.1,91.7,31.6,83.3,37.6,100,50.1,87.5,52.5,312.5
19.12,95.8,22.12,100,31.62,179.2,37.62,125,50.12,133.3,52.52,262.5
19.14,100,22.14,87.5,31.64,137.5,37.64,154.2,50.14,104.2,52.54,291.7
19.16,45.8,22.16,91.7,31.66,170.8,37.66,112.5,50.16,100,52.56,262.5
19.18,50,22.18,95.8,31.68,145.8,37.68,191.7,50.18,116.7,52.58,312.5
19.2,108.3,22.2,125,31.7,183.3,37.7,166.7,50.2,100,52.6,245.8
19.22,100,22.22,108.3,31.72,158.3,37.72,150,50.22,83.3,52.62,312.5
19.24,112.5,22.24,108.3,31.74,145.8,37.74,179.2,50.24,91.7,52.64,279.2
19.26,116.7,22.26,137.5,31.76,141.7,37.76,183.3,50.26,133.3,52.66,258.3
19.28,95.8,22.28,158.3,31.78,170.8,37.78,179.2,50.28,112.5,52.68,312.5
19.3,116.7,22.3,125,31.8,220.8,37.8,200,50.3,108.3,52.7,316.7
19.32,170.8,22.32,95.8,31.82,187.5,37.82,179.2,50.32,104.2,52.72,241.7
19.34,141.7,22.34,150,31.84,166.7,37.84,216.7,50.34,62.5,52.74,250
19.36,129.2,22.36,137.5,31.86,212.5,37.86,266.7,50.36,91.7,52.76,212.5
19.38,175,22.38,145.8,31.88,212.5,37.88,179.2,50.38,120.8,52.78,279.2
19.4,187.5,22.4,166.7,31.9,220.8,37.9,241.7,50.4,95.8,52.8,212.5
19.42,200,22.42,179.2,31.92,229.2,37.92,316.7,50.42,83.3,52.82,200
19.44,187.5,22.44,250,31.94,179.2,37.94,345.8,50.44,83.3,52.84,204.2
19.46,270.8,22.46,187.5,31.96,250,37.96,341.7,50.46,116.7,52.86,195.8
19.48,270.8,22.48,233.3,31.98,229.2,37.98,379.2,50.48,145.8,52.88,133.3
19.5,341.7,22.5,254.2,32,204.2,38,487.5,50.5,133.3,52.9,175
19.52,325,22.52,262.5,32.02,258.3,38.02,445.8,50.52,166.7,52.92,170.8
19.54,412.5,22.54,316.7,32.04,283.3,38.04,554.2,50.54,166.7,52.94,158.3
19.56,416.7,22.56,325,32.06,270.8,38.06,583.3,50.56,150,52.96,150
19.58,583.3,22.58,383.3,32.08,279.2,38.08,845.8,50.58,125,52.98,125
19.6,608.3,22.6,400,32.1,387.5,38.1,645.8,50.6,108.3,53,120.8
19.62,595.8,22.62,458.3,32.12,308.3,38.12,870.8,50.62,91.7,53.02,91.7
19.64,654.2,22.64,520.8,32.14,450,38.14,1012.5,50.64,154.2,53.04,100
19.66,700,22.66,637.5,32.16,500,38.16,966.7,50.66,137.5,53.06,100
19.68,650,22.68,666.7,32.18,525,38.18,845.8,50.68,258.3,53.08,116.7
19.7,566.7,22.7,612.5,32.2,616.7,38.2,983.3,50.7,191.7,53.1,141.7
19.72,487.5,22.72,675,32.22,666.7,38.22,891.7,50.72,141.7,53.12,158.3
19.74,612.5,22.74,741.7,32.24,866.7,38.24,808.3,50.74,208.3,53.14,145.8
19.76,558.3,22.76,600,32.26,1175,38.26,795.8,50.76,220.8,53.16,116.7
19.78,533.3,22.78,620.8,32.28,1454.2,38.28,787.5,50.78,229.2,53.18,87.5
19.8,445.8,22.8,683.3,32.3,1725,38.3,725,50.8,266.7,53.2,116.7
19.82,412.5,22.82,545.8,32.32,2012.5,38.32,670.8,50.82,333.3,53.22,133.3
19.84,304.2,22.84,533.3,32.34,2587.5,38.34,691.7,50.84,425,53.24,133.3
19.86,250,22.86,508.3,32.36,2975,38.36,675,50.86,408.3,53.26,116.7
19.88,316.7,22.88,508.3,32.38,3233.3,38.38,691.7,50.88,366.7,53.28,83.3
19.9,216.7,22.9,445.8,32.4,3062.5,38.4,745.8,50.9,454.2,53.3,104.2
19.92,250,22.92,408.3,32.42,2512.5,38.42,487.5,50.92,466.7,53.32,91.7
19.94,250,22.94,370.8,32.44,2391.7,38.44,600,50.94,375,53.34,125
19.96,220.8,22.96,358.3,32.46,2354.2,38.46,554.2,50.96,337.5,53.36,95.8
19.98,241.7,22.98,258.3,32.48,2070.8,38.48,458.3,50.98,375,53.38,104.2
20,245.8,23,170.8,32.5,2000,38.5,441.7,51,362.5,53.4,108.3
20.02,204.2,23.02,225,32.52,1937.5,38.52,454.2,51.02,291.7,53.42,120.8
20.04,237.5,23.04,154.2,32.54,1858.3,38.54,325,51.04,304.2,53.44,116.7
20.06,229.2,23.06,125,32.56,2195.8,38.56,329.2,51.06,258.3,53.46,79.2
20.08,291.7,23.08,154.2,32.58,2258.3,38.58,304.2,51.08,250,53.48,91.7
20.1,233.3,23.1,75,32.6,1925,38.6,241.7,51.1,233.3,53.5,75
20.12,233.3,23.12,112.5,32.62,1916.7,38.62,275,51.12,258.3,53.52,79.2
20.14,208.3,23.14,100,32.64,1604.2,38.64,254.2,51.14,279.2,53.54,83.3
20.16,208.3,23.16,108.3,32.66,1375,38.66,183.3,51.16,362.5,53.56,95.8
20.18,187.5,23.18,108.3,32.68,1016.7,38.68,200,51.18,312.5,53.58,83.3
20.2,183.3,23.2,79.2,32.7,937.5,38.7,145.8,51.2,270.8,53.6,100
20.22,220.8,23.22,120.8,32.72,820.8,38.72,104.2,51.22,225,53.62,108.3
20.24,195.8,23.24,120.8,32.74,712.5,38.74,175,51.24,308.3,53.64,83.3
20.26,170.8,23.26,95.8,32.76,600,38.76,162.5,51.26,316.7,53.66,100
20.28,183.3,23.28,112.5,32.78,466.7,38.78,129.2,51.28,300,53.68,91.7
20.3,129.2,23.3,83.3,32.8,479.2,38.8,137.5,51.3,262.5,53.7,95.8
20.32,116.7,23.32,95.8,32.82,462.5,38.82,150,51.32,258.3,53.72,79.2
20.34,116.7,23.34,66.7,32.84,341.7,38.84,137.5,51.34,275,53.74,100
20.36,95.8,23.36,79.2,32.86,300,38.86,137.5,51.36,195.8,53.76,79.2
20.38,116.7,23.38,91.7,32.88,287.5,38.88,162.5,51.38,208.3,53.78,91.7
20.4,125,23.4,75,32.9,325,38.9,100,51.4,191.7,53.8,87.5
20.42,120.8,23.42,70.8,32.92,362.5,38.92,141.7,51.42,158.3,53.82,91.7
20.44,116.7,23.44,75,32.94,287.5,38.94,120.8,51.44,158.3,53.84,79.2
20.46,95.8,23.46,79.2,32.96,254.2,38.96,116.7,51.46,233.3,53.86,120.8
20.48,83.3,23.48,83.3,32.98,258.3,38.98,166.7,51.48,137.5,53.88,83.3
20.5,112.5,23.5,83.3,33,258.3,39,125,51.5,116.7,53.9,87.5
20.52,83.3,23.52,125,33.02,220.8,39.02,87.5,51.52,162.5,53.92,112.5
20.54,125,23.54,75,33.04,258.3,39.04,125,51.54,166.7,53.94,116.7
20.56,75,23.56,79.2,33.06,204.2,39.06,70.8,51.56,104.2,53.96,91.7
20.58,95.8,23.58,83.3,33.08,250,39.08,87.5,51.58,137.5,53.98,87.5
20.6,83.3,23.6,83.3,33.1,179.2,39.1,133.3,51.6,125,54,54.2
20.62,66.7,23.62,45.8,33.12,208.3,39.12,83.3,51.62,150,,
20.64,87.5,23.64,112.5,33.14,170.8,39.14,154.2,51.64,141.7,,
20.66,83.3,23.66,79.2,33.16,154.2,39.16,120.8,51.66,150,,
20.68,75,23.68,45.8,33.18,200,39.18,116.7,51.68,95.8,,
20.7,91.7,23.7,58.3,33.2,216.7,39.2,83.3,51.7,104.2,,
20.72,54.2,23.72,91.7,33.22,145.8,39.22,145.8,51.72,158.3,,
20.74,58.3,23.74,45.8,33.24,141.7,39.24,112.5,51.74,129.2,,
20.76,83.3,23.76,66.7,33.26,162.5,39.26,70.8,51.76,87.5,,
20.78,58.3,23.78,62.5,33.28,175,39.28,112.5,51.78,162.5,,
20.8,104.2,23.8,75,33.3,183.3,39.3,91.7,51.8,158.3,,
20.82,75,23.82,104.2,33.32,179.2,39.32,129.2,51.82,104.2,,
20.84,66.7,23.84,45.8,33.34,141.7,39.34,75,51.84,70.8,,
20.86,58.3,23.86,50,33.36,187.5,39.36,91.7,51.86,150,,
20.88,54.2,23.88,75,33.38,166.7,39.38,112.5,51.88,120.8,,
20.9,95.8,23.9,58.3,33.4,154.2,39.4,91.7,,,,
20.92,58.3,23.92,95.8,33.42,179.2,39.42,108.3,,,,
20.94,79.2,23.94,50,33.44,129.2,39.44,108.3,,,,
20.96,83.3,23.96,58.3,33.46,137.5,39.46,183.3,,,,
20.98,108.3,23.98,79.2,33.48,125,39.48,100,,,,
21,70.8,24,20.8,33.5,162.5,39.5,104.2,,,,
,,,,33.52,145.8,,,,,,
,,,,33.54,125,,,,,,
,,,,33.56,179.2,,,,,,
,,,,33.58,154.2,,,,,,
,,,,33.6,216.7,,,,,,
,,,,33.62,112.5,,,,,,
,,,,33.64,120.8,,,,,,
,,,,33.66,162.5,,,,,,
,,,,33.68,154.2,,,,,,
,,,,33.7,116.7,,,,,,
,,,,33.72,133.3,,,,,,
,,,,33.74,158.3,,,,,,
,,,,33.76,183.3,,,,,,
,,,,33.78,170.8,,,,,,
,,,,33.8,150,,,,,,
,,,,33.82,150,,,,,,
,,,,33.84,154.2,,,,,,
,,,,33.86,137.5,,,,,,
,,,,33.88,120.8,,,,,,
,,,,33.9,187.5,,,,,,
,,,,33.92,120.8,,,,,,
,,,,33.94,137.5,,,,,,
,,,,33.96,145.8,,,,,,
,,,,33.98,116.7,,,,,,
,,,,34,87.5,,,,,,