File: data/peaks_0%.csv
111theta,111intensity,200theta,200intensity,220theta,220intensity,311theta,311intensity,222theta,222intensity,400theta,400intensity
18.5,72,21.47,85,31.06,114,37,107,50,110,51.76,123
18.52,85,21.49,73,31.08,111,37.02,97,50.02,99,51.78,103
18.54,81,21.51,78,31.1,123,37.04,89,50.04,101,51.8,110
18.56,70,21.53,91,31.12,99,37.06,94,50.06,97,51.82,117
18.58,86,21.55,87,31.14,97,37.08,90,50.08,105,51.84,128
18.6,69,21.57,84,31.16,103,37.1,108,50.1,95,51.86,96
18.62,84,21.59,85,31.18,87,37.12,100,50.12,97,51.88,98
18.64,84,21.61,73,31.2,99,37.14,106,50.14,110,51.9,100
18.66,79,21.63,93,31.22,105,37.16,90,50.16,101,51.92,111
18.68,79,21.65,75,31.24,111,37.18,96,50.18,100,51.94,105
18.7,85,21.67,85,31.26,99,37.2,85,50.2,105,51.96,105
18.72,83,21.69,91,31.28,104,37.22,109,50.22,101,51.98,114
18.74,81,21.71,91,31.3,111,37.24,96,50.24,90,52,100
18.76,84,21.73,102,31.32,104,37.26,92,50.26,116,52.02,121
18.78,72,21.75,76,31.34,105,37.28,96,50.28,103,52.04,105
18.8,70,21.77,85,31.36,99,37.3,110,50.3,101,52.06,115
18.82,80,21.79,82,31.38,124,37.32,109,50.32,94,52.08,115
18.84,80,21.81,89,31.4,109,37.34,106,50.34,107,52.1,109
18.86,86,21.83,94,31.42,115,37.36,80,50.36,89,52.12,113
18.88,82,21.85,86,31.44,134,37.38,100,50.38,96,52.14,115
18.9,73,21.87,83,31.46,117,37.4,112,50.4,103,52.16,118
18.92,77,21.89,95,31.48,123,37.42,102,50.42,112,52.18,134
18.94,79,21.91,82,31.5,138,37.44,106,50.44,109,52.2,150
18.96,67,21.93,97,31.52,134,37.46,90,50.46,106,52.22,166
18.98,80,21.95,83,31.54,140,37.48,98,50.48,93,52.24,193
19,79,21.97,107,31.56,122,37.5,95,50.5,96,52.26,274
19.02,89,21.99,87,31.58,123,37.52,93,50.52,117,52.28,408
19.04,76,22.01,89,31.6,114,37.54,86,50.54,121,52.3,579
19.06,73,22.03,86,31.62,145,37.56,89,50.56,106,52.32,712
19.08,75,22.05,95,31.64,128,37.58,88,50.58,108,52.34,697
19.1,83,22.07,113,31.66,129,37.6,106,50.6,91,52.36,470
19.12,89,22.09,98,31.68,130,37.62,107,50.62,121,52.38,267
19.14,97,22.11,91,31.7,134,37.64,104,50.64,95,52.4,168
19.16,83,22.13,108,31.72,130,37.66,89,50.66,98,52.42,148
19.18,80,22.15,98,31.74,122,37.68,103,50.68,110,52.44,119
19.2,73,22.17,104,31.76,142,37.7,90,50.7,126,52.46,139
19.22,77,22.19,97,31.78,131,37.72,105,50.72,116,52.48,116
19.24,95,22.21,101,31.8,136,37.74,105,50.74,117,52.5,118
19.26,94,22.23,89,31.82,114,37.76,96,50.76,129,52.52,126
19.28,77,22.25,91,31.84,140,37.78,88,50.78,143,52.54,115
19.3,84,22.27,89,31.86,119,37.8,118,50.8,156,52.56,153
19.32,88,22.29,94,31.88,141,37.82,111,50.82,187,52.58,141
19.34,74,22.31,112,31.9,149,37.84,105,50.84,285,52.6,213
19.36,91,22.33,102,31.92,142,37.86,127,50.86,368,52.62,262
19.38,71,22.35,90,31.94,137,37.88,112,50.88,518,52.64,327
19.4,86,22.37,112,31.96,124,37.9,117,50.9,648,52.66,391
19.42,87,22.39,89,31.98,157,37.92,105,50.92,568,52.68,401
19.44,102,22.41,93,32,126,37.94,97,50.94,315,52.7,229
19.46,85,22.43,96,32.02,118,37.96,111,50.96,195,52.72,174
19.48,124,22.45,92,32.04,146,37.98,135,50.98,172,52.74,143
19.5,98,22.47,107,32.06,156,38,136,51,143,52.76,123
19.52,84,22.49,113,32.08,132,38.02,143,51.02,155,52.78,119
19.54,106,22.51,120,32.1,151,38.04,209,51.04,121,52.8,103
19.56,127,22.53,141,32.12,142,38.06,250,51.06,130,52.82,107
19.58,126,22.55,133,32.14,158,38.08,296,51.08,141,52.84,116
19.6,155,22.57,114,32.16,174,38.1,450,51.1,133,52.86,104
19.62,207,22.59,119,32.18,202,38.12,708,51.12,126,52.88,98
19.64,403,22.61,145,32.2,215,38.14,1048,51.14,128,52.9,93
19.66,387,22.63,181,32.22,250,38.16,1285,51.16,179,52.92,104
19.68,179,22.65,227,32.24,296,38.18,1182,51.18,221,52.94,98
19.7,114,22.67,289,32.26,405,38.2,606,51.2,282,52.96,101
19.72,120,22.69,376,32.28,546,38.22,279,51.22,357,52.98,86
19.74,157,22.71,562,32.3,684,38.24,193,51.24,410,53,106
19.76,270,22.73,702,32.32,1017,38.26,177,51.26,269,53.02,93
19.78,225,22.75,438,32.34,1663,38.28,200,51.28,188,53.04,90
19.8,121,22.77,245,32.36,2870,38.3,203,51.3,121,53.06,103
19.82,104,22.79,172,32.38,3201,38.32,237,51.32,128,53.08,98
19.84,98,22.81,200,32.4,1605,38.34,303,51.34,124,53.1,90
19.86,73,22.83,237,32.42,657,38.36,410,51.36,124,53.12,87
19.88,90,22.85,336,32.44,410,38.38,585,51.38,131,53.14,102
19.9,86,22.87,371,32.46,378,38.4,709,51.4,98,53.16,105
19.92,100,22.89,250,32.48,424,38.42,598,51.42,103,53.18,95
19.94,79,22.91,134,32.5,455,38.44,357,51.44,109,53.2,88
19.96,95,22.93,111,32.52,617,38.46,201,51.46,103,53.22,98
19.98,91,22.95,104,32.54,947,38.48,132,51.48,107,53.24,116
20,74,22.97,106,32.56,1449,38.5,118,51.5,128,53.26,94
20.02,89,22.99,93,32.58,1719,38.52,103,51.52,125,53.28,103
20.04,75,23.01,98,32.6,935,38.54,106,51.54,100,53.3,100
20.06,83,23.03,102,32.62,334,38.56,108,51.56,102,53.32,109
20.08,76,23.05,96,32.64,223,38.58,96,51.58,115,53.34,98
20.1,78,23.07,97,32.66,202,38.6,97,51.6,105,53.36,93
20.12,86,23.09,103,32.68,178,38.62,99,51.62,112,53.38,87
20.14,75,23.11,98,32.7,148,38.64,99,51.64,112,53.4,103
20.16,81,23.13,82,32.72,137,38.66,104,51.66,122,53.42,112
20.18,74,23.15,98,32.74,132,38.68,93,51.68,112,53.44,87
20.2,85,23.17,101,32.76,124,38.7,93,51.7,120,53.46,97
20.22,80,23.19,95,32.78,135,38.72,96,51.72,116,53.48,85
20.24,74,23.21,91,32.8,139,38.74,104,51.74,101,53.5,92
20.26,70,23.23,86,32.82,124,38.76,95,,,,
20.28,74,23.25,78,32.84,130,38.78,86,,,,
20.3,86,23.27,93,32.86,126,38.8,88,,,,
20.32,94,23.29,111,32.88,107,38.82,88,,,,
20.34,83,23.31,97,32.9,134,38.84,104,,,,
20.36,97,23.33,91,32.92,124,38.86,94,,,,
20.38,70,23.35,97,32.94,129,38.88,97,,,,
20.4,79,23.37,108,32.96,133,38.9,101,,,,
20.42,78,23.39,101,32.98,116,38.92,93,,,,
20.44,75,23.41,87,33,116,38.94,107,,,,
20.46,89,23.43,94,33.02,103,38.96,81,,,,
20.48,90,23.45,117,33.04,131,38.98,79,,,,
20.5,84,23.47,79,33.06,117,39,87,,,,
20.52,86,23.49,92,33.08,125,,,,,,
20.54,79,23.51,100,33.1,112,,,,,,
20.56,86,23.53,100,33.12,109,,,,,,
,,23.55,91,33.14,112,,,,,,
,,,,33.16,106,,,,,,
,,,,33.18,124,,,,,,
,,,,33.2,132,,,,,,
,,,,33.22,112,,,,,,
,,,,33.24,116,,,,,,
,,,,33.26,121,,,,,,
,,,,33.28,117,,,,,,
,,,,33.3,130,,,,,,
,,,,33.32,100,,,,,,
,,,,33.34,126,,,,,,
,,,,33.36,110,,,,,,
,,,,33.38,118,,,,,,
,,,,33.4,102,,,,,,
,,,,33.42,123,,,,,,
,,,,33.44,108,,,,,,
,,,,33.46,120,,,,,,
,,,,33.48,115,,,,,,
,,,,33.5,110,,,,,,
,,,,33.52,99,,,,,,
,,,,33.54,104,,,,,,
,,,,33.56,125,,,,,,
,,,,33.58,125,,,,,,
,,,,33.6,106,,,,,,
,,,,33.62,104,,,,,,
,,,,33.64,117,,,,,,
,,,,33.66,111,,,,,,
,,,,33.68,112,,,,,,
,,,,33.7,117,,,,,,
,,,,33.72,120,,,,,,
,,,,33.74,106,,,,,,
,,,,33.76,108,,,,,,
,,,,33.78,115,,,,,,
,,,,33.8,113,,,,,,
,,,,33.82,116,,,,,,
,,,,33.84,116,,,,,,
,,,,33.86,121,,,,,,
,,,,33.88,108,,,,,,
,,,,33.9,128,,,,,,
,,,,33.92,129,,,,,,
,,,,33.94,104,,,,,,
,,,,33.96,101,,,,,,
,,,,33.98,98,,,,,,
,,,,34,128,,,,,,
,,,,34.02,94,,,,,,
,,,,34.04,119,,,,,,
,,,,34.06,104,,,,,,
,,,,34.08,94,,,,,,
,,,,34.1,93,,,,,,
,,,,34.12,98,,,,,,
,,,,34.14,83,,,,,,
,,,,34.16,101,,,,,,
,,,,34.18,109,,,,,,
,,,,34.2,97,,,,,,
,,,,34.22,94,,,,,,
,,,,34.24,102,,,,,,
,,,,34.26,109,,,,,,
,,,,34.28,111,,,,,,
,,,,34.3,103,,,,,,
,,,,34.32,100,,,,,,
,,,,34.34,108,,,,,,
,,,,34.36,98,,,,,,
,,,,34.38,115,,,,,,
,,,,34.4,95,,,,,,
,,,,34.42,97,,,,,,
,,,,34.44,122,,,,,,
,,,,34.46,104,,,,,,
,,,,34.48,103,,,,,,
,,,,34.5,115,,,,,,
,,,,34.52,95,,,,,,
,,,,34.54,122,,,,,,
,,,,34.56,96,,,,,,
,,,,34.58,105,,,,,,
,,,,34.6,101,,,,,,
,,,,34.62,109,,,,,,
,,,,34.64,108,,,,,,
,,,,34.66,96,,,,,,
,,,,34.68,95,,,,,,
,,,,34.7,102,,,,,,
,,,,34.72,89,,,,,,
,,,,34.74,88,,,,,,
,,,,34.76,101,,,,,,
,,,,34.78,108,,,,,,
,,,,34.8,91,,,,,,
,,,,34.82,121,,,,,,
,,,,34.84,86,,,,,,
,,,,34.86,101,,,,,,
,,,,34.88,88,,,,,,
,,,,34.9,104,,,,,,
,,,,34.92,95,,,,,,
,,,,34.94,94,,,,,,
,,,,34.96,100,,,,,,
,,,,34.98,100,,,,,,
,,,,35,113,,,,,,
,,,,35.02,99,,,,,,