File: data/peaks_9%.csv
111theta,111intensity,200theta,200intensity,220theta,220intensity,311theta,311intensity,222theta,222intensity,400theta,400intensity
18.5,85,21.5,77,31.5,132,37,86,50,96,51.76,103
18.52,71,21.52,88,31.52,123,37.02,87,50.02,94,51.78,90
18.54,71,21.54,83,31.54,138,37.04,104,50.04,108,51.8,101
18.56,74,21.56,69,31.56,115,37.06,108,50.06,77,51.82,109
18.58,92,21.58,69,31.58,115,37.08,92,50.08,91,51.84,111
18.6,65,21.6,84,31.6,118,37.1,99,50.1,98,51.86,104
18.62,70,21.62,90,31.62,109,37.12,102,50.12,105,51.88,103
18.64,74,21.64,85,31.64,112,37.14,96,50.14,108,51.9,107
18.66,82,21.66,84,31.66,120,37.16,98,50.16,112,51.92,100
18.68,66,21.68,62,31.68,124,37.18,115,50.18,103,51.94,96
18.7,74,21.7,86,31.7,118,37.2,90,50.2,94,51.96,115
18.72,79,21.72,79,31.72,131,37.22,98,50.22,89,51.98,122
18.74,77,21.74,91,31.74,130,37.24,104,50.24,99,52,96
18.76,78,21.76,72,31.76,139,37.26,89,50.26,104,52.02,114
18.78,92,21.78,79,31.78,138,37.28,92,50.28,93,52.04,109
18.8,79,21.8,85,31.8,149,37.3,93,50.3,112,52.06,108
18.82,64,21.82,74,31.82,143,37.32,118,50.32,91,52.08,121
18.84,71,21.84,83,31.84,126,37.34,117,50.34,114,52.1,129
18.86,96,21.86,73,31.86,121,37.36,93,50.36,100,52.12,125
18.88,68,21.88,92,31.88,135,37.38,115,50.38,91,52.14,122
18.9,76,21.9,84,31.9,119,37.4,112,50.4,115,52.16,151
18.92,91,21.92,98,31.92,123,37.42,97,50.42,92,52.18,124
18.94,67,21.94,87,31.94,152,37.44,98,50.44,115,52.2,160
18.96,70,21.96,91,31.96,134,37.46,101,50.46,96,52.22,162
18.98,71,21.98,86,31.98,122,37.48,100,50.48,94,52.24,183
19,75,22,83,32,122,37.5,105,50.5,94,52.26,211
19.02,78,22.02,86,32.02,136,37.52,81,50.52,105,52.28,277
19.04,80,22.04,85,32.04,135,37.54,108,50.54,97,52.3,328
19.06,84,22.06,92,32.06,141,37.56,122,50.56,109,52.32,335
19.08,75,22.08,94,32.08,139,37.58,101,50.58,107,52.34,343
19.1,86,22.1,96,32.1,160,37.6,103,50.6,115,52.36,298
19.12,85,22.12,91,32.12,154,37.62,99,50.62,107,52.38,264
19.14,74,22.14,82,32.14,139,37.64,101,50.64,91,52.4,254
19.16,82,22.16,90,32.16,177,37.66,106,50.66,99,52.42,177
19.18,68,22.18,80,32.18,165,37.68,117,50.68,90,52.44,161
19.2,78,22.2,86,32.2,200,37.7,103,50.7,115,52.46,147
19.22,73,22.22,104,32.22,225,37.72,109,50.72,121,52.48,145
19.24,70,22.24,88,32.24,257,37.74,90,50.74,120,52.5,125
19.26,78,22.26,82,32.26,307,37.76,109,50.76,103,52.52,138
19.28,81,22.28,86,32.28,387,37.78,74,50.78,139,52.54,120
19.3,81,22.3,86,32.3,530,37.8,102,50.8,137,52.56,150
19.32,86,22.32,86,32.32,790,37.82,103,50.82,175,52.58,153
19.34,90,22.34,91,32.34,1248,37.84,98,50.84,210,52.6,161
19.36,76,22.36,97,32.36,1896,37.86,103,50.86,252,52.62,186
19.38,91,22.38,80,32.38,2334,37.88,107,50.88,309,52.64,232
19.4,79,22.4,90,32.4,2021,37.9,111,50.9,356,52.66,208
19.42,93,22.42,89,32.42,1288,37.92,119,50.92,351,52.68,226
19.44,100,22.44,103,32.44,774,37.94,114,50.94,297,52.7,192
19.46,110,22.46,98,32.46,531,37.96,131,50.96,237,52.72,194
19.48,89,22.48,105,32.48,465,37.98,125,50.98,203,52.74,152
19.5,113,22.5,93,32.5,445,38,138,51,153,52.76,133
19.52,114,22.52,90,32.52,556,38.02,162,51.02,152,52.78,137
19.54,118,22.54,108,32.54,758,38.04,149,51.04,143,52.8,113
19.56,144,22.56,123,32.56,1067,38.06,210,51.06,134,52.82,101
19.58,139,22.58,107,32.58,1246,38.08,253,51.08,133,52.84,106
19.6,136,22.6,132,32.6,1099,38.1,377,51.1,120,52.86,118
19.62,191,22.62,141,32.62,732,38.12,506,51.12,146,52.88,114
19.64,247,22.64,187,32.64,476,38.14,646,51.14,148,52.9,79
19.66,294,22.66,201,32.66,300,38.16,718,51.16,173,52.92,91
19.68,222,22.68,250,32.68,223,38.18,707,51.18,149,52.94,95
19.7,145,22.7,338,32.7,221,38.2,552,51.2,236,52.96,109
19.72,112,22.72,443,32.72,172,38.22,433,51.22,210,52.98,103
19.74,134,22.74,486,32.74,180,38.24,275,51.24,241,53,105
19.76,153,22.76,389,32.76,150,38.26,218,51.26,215,53.02,97
19.78,201,22.78,283,32.78,162,38.28,174,51.28,184,53.04,94
19.8,161,22.8,214,32.8,129,38.3,199,51.3,140,53.06,107
19.82,107,22.82,195,32.82,134,38.32,213,51.32,135,53.08,109
19.84,100,22.84,219,32.84,133,38.34,234,51.34,115,53.1,114
19.86,82,22.86,257,32.86,129,38.36,321,51.36,126,53.12,95
19.88,80,22.88,292,32.88,125,38.38,363,51.38,116,53.14,97
19.9,89,22.9,211,32.9,109,38.4,450,51.4,137,53.16,90
19.92,99,22.92,170,32.92,133,38.42,401,51.42,117,53.18,99
19.94,84,22.94,139,32.94,123,38.44,331,51.44,121,53.2,103
19.96,81,22.96,100,32.96,115,38.46,237,51.46,117,53.22,97
19.98,88,22.98,102,32.98,139,38.48,188,51.48,129,53.24,96
20,88,23,84,33,124,38.5,146,51.5,99,53.26,94
20.02,98,23.02,99,33.02,105,38.52,139,51.52,116,53.28,92
20.04,88,23.04,83,33.04,131,38.54,111,51.54,97,53.3,93
20.06,88,23.06,85,33.06,135,38.56,105,51.56,110,53.32,104
20.08,75,23.08,90,33.08,107,38.58,100,51.58,95,53.34,102
20.1,86,23.1,104,33.1,124,38.6,118,51.6,119,53.36,102
20.12,94,23.12,99,33.12,126,38.62,108,51.62,110,53.38,93
20.14,93,23.14,89,33.14,153,38.64,95,51.64,109,53.4,93
20.16,76,23.16,89,33.16,125,38.66,113,51.66,114,53.42,87
20.18,79,23.18,94,33.18,115,38.68,102,51.68,108,53.44,94
20.2,74,23.2,92,33.2,104,38.7,117,51.7,110,53.46,96
20.22,77,23.22,84,33.22,127,38.72,98,51.72,102,53.48,90
20.24,74,23.24,100,33.24,114,38.74,106,51.74,116,53.5,98
20.26,82,23.26,94,33.26,111,38.76,85,,,,
20.28,87,23.28,108,33.28,106,38.78,97,,,,
20.3,89,23.3,81,33.3,111,38.8,108,,,,
20.32,86,23.32,91,33.32,118,38.82,84,,,,
20.34,71,23.34,90,33.34,100,38.84,83,,,,
20.36,88,23.36,100,33.36,107,38.86,88,,,,
20.38,87,23.38,74,33.38,93,38.88,92,,,,
20.4,60,23.4,85,33.4,112,38.9,93,,,,
20.42,84,23.42,102,33.42,128,38.92,95,,,,
20.44,81,23.44,90,33.44,110,38.94,102,,,,
20.46,80,23.46,94,33.46,128,38.96,93,,,,
20.48,82,23.48,103,33.48,96,38.98,80,,,,
20.5,81,23.5,99,33.5,119,39,105,,,,